 Frequency [Hz] - Resonance Curve	Voltage [V] - Resonance Curve	
1002.50	1.28	
1005.00	1.28	
1007.50	1.28	
1010.00	1.29	
1012.50	1.29	
1015.00	1.29	
1017.50	1.30	
1020.00	1.30	
1022.50	1.30	
1025.00	1.31	
1027.50	1.31	
1030.00	1.31	
1032.50	1.32	
1035.00	1.32	
1037.50	1.32	
1040.00	1.33	
1042.50	1.33	
1045.00	1.33	
1047.50	1.34	
1050.00	1.34	
1052.50	1.34	
1055.00	1.35	
1057.50	1.35	
1060.00	1.35	
1062.50	1.36	
1065.00	1.36	
1067.50	1.36	
1070.00	1.37	
1072.50	1.37	
1075.00	1.37	
1077.50	1.37	
1080.00	1.38	
1082.50	1.38	
1085.00	1.38	
1087.50	1.39	
1090.00	1.39	
1092.50	1.39	
1095.00	1.40	
1097.50	1.40	
1100.00	1.40	
1102.50	1.41	
1105.00	1.41	
1107.50	1.41	
1110.00	1.42	
1112.50	1.42	
1115.00	1.42	
1117.50	1.43	
1120.00	1.43	
1122.50	1.43	
1125.00	1.43	
1127.50	1.44	
1130.00	1.44	
1132.50	1.44	
1135.00	1.45	
1137.50	1.45	
1140.00	1.45	
1142.50	1.46	
1145.00	1.46	
1147.50	1.46	
1150.00	1.47	
1152.50	1.47	
1155.00	1.47	
1157.50	1.48	
1160.00	1.48	
1162.50	1.48	
1165.00	1.48	
1167.50	1.49	
1170.00	1.49	
1172.50	1.49	
1175.00	1.50	
1177.50	1.50	
1180.00	1.50	
1182.50	1.51	
1185.00	1.51	
1187.50	1.51	
1190.00	1.51	
1192.50	1.52	
1195.00	1.52	
1197.50	1.52	
1200.00	1.53	
1202.50	1.53	
1205.00	1.53	
1207.50	1.54	
1210.00	1.54	
1212.50	1.54	
1215.00	1.54	
1217.50	1.55	
1220.00	1.55	
1222.50	1.55	
1225.00	1.56	
1227.50	1.56	
1230.00	1.56	
1232.50	1.56	
1235.00	1.57	
1237.50	1.57	
1240.00	1.57	
1242.50	1.58	
1245.00	1.58	
1247.50	1.58	
1250.00	1.59	
1252.50	1.59	
1255.00	1.59	
1257.50	1.59	
1260.00	1.60	
1262.50	1.60	
1265.00	1.60	
1267.50	1.60	
1270.00	1.61	
1272.50	1.61	
1275.00	1.61	
1277.50	1.62	
1280.00	1.62	
1282.50	1.62	
1285.00	1.62	
1287.50	1.63	
1290.00	1.63	
1292.50	1.63	
1295.00	1.64	
1297.50	1.64	
1300.00	1.64	
1302.50	1.64	
1305.00	1.65	
1307.50	1.65	
1310.00	1.65	
1312.50	1.65	
1315.00	1.66	
1317.50	1.66	
1320.00	1.66	
1322.50	1.67	
1325.00	1.67	
1327.50	1.67	
1330.00	1.67	
1332.50	1.68	
1335.00	1.68	
1337.50	1.68	
1340.00	1.68	
1342.50	1.69	
1345.00	1.69	
1347.50	1.69	
1350.00	1.69	
1352.50	1.70	
1355.00	1.70	
1357.50	1.70	
1360.00	1.70	
1362.50	1.71	
1365.00	1.71	
1367.50	1.71	
1370.00	1.71	
1372.50	1.72	
1375.00	1.72	
1377.50	1.72	
1380.00	1.72	
1382.50	1.73	
1385.00	1.73	
1387.50	1.73	
1390.00	1.73	
1392.50	1.74	
1395.00	1.74	
1397.50	1.74	
1400.00	1.74	
1402.50	1.75	
1405.00	1.75	
1407.50	1.75	
1410.00	1.75	
1412.50	1.76	
1415.00	1.76	
1417.50	1.76	
1420.00	1.76	
1422.50	1.76	
1425.00	1.77	
1427.50	1.77	
1430.00	1.77	
1432.50	1.77	
1435.00	1.78	
1437.50	1.78	
1440.00	1.78	
1442.50	1.78	
1445.00	1.78	
1447.50	1.79	
1450.00	1.79	
1452.50	1.79	
1455.00	1.79	
1457.50	1.80	
1460.00	1.80	
1462.50	1.80	
1465.00	1.80	
1467.50	1.80	
1470.00	1.81	
1472.50	1.81	
1475.00	1.81	
1477.50	1.81	
1480.00	1.81	
1482.50	1.82	
1485.00	1.82	
1487.50	1.82	
1490.00	1.82	
1492.50	1.82	
1495.00	1.83	
1497.50	1.83	
1500.00	1.83	
1502.50	1.83	
1505.00	1.83	
1507.50	1.84	
1510.00	1.84	
1512.50	1.84	
1515.00	1.84	
1517.50	1.84	
1520.00	1.85	
1522.50	1.85	
1525.00	1.85	
1527.50	1.85	
1530.00	1.85	
1532.50	1.86	
1535.00	1.86	
1537.50	1.86	
1540.00	1.86	
1542.50	1.86	
1545.00	1.86	
1547.50	1.87	
1550.00	1.87	
1552.50	1.87	
1555.00	1.87	
1557.50	1.87	
1560.00	1.88	
1562.50	1.88	
1565.00	1.88	
1567.50	1.88	
1570.00	1.88	
1572.50	1.88	
1575.00	1.89	
1577.50	1.89	
1580.00	1.89	
1582.50	1.89	
1585.00	1.89	
1587.50	1.89	
1590.00	1.89	
1592.50	1.90	
1595.00	1.90	
1597.50	1.90	
1600.00	1.90	
1602.50	1.90	
1605.00	1.90	
1607.50	1.91	
1610.00	1.91	
1612.50	1.91	
1615.00	1.91	
1617.50	1.91	
1620.00	1.91	
1622.50	1.91	
1625.00	1.92	
1627.50	1.92	
1630.00	1.92	
1632.50	1.92	
1635.00	1.92	
1637.50	1.92	
1640.00	1.92	
1642.50	1.93	
1645.00	1.93	
1647.50	1.93	
1650.00	1.93	
1652.50	1.93	
1655.00	1.93	
1657.50	1.93	
1660.00	1.93	
1662.50	1.94	
1665.00	1.94	
1667.50	1.94	
1670.00	1.94	
1672.50	1.94	
1675.00	1.94	
1677.50	1.94	
1680.00	1.94	
1682.50	1.94	
1685.00	1.95	
1687.50	1.95	
1690.00	1.95	
1692.50	1.95	
1695.00	1.95	
1697.50	1.95	
1700.00	1.95	
1702.50	1.95	
1705.00	1.95	
1707.50	1.96	
1710.00	1.96	
1712.50	1.96	
1715.00	1.96	
1717.50	1.96	
1720.00	1.96	
1722.50	1.96	
1725.00	1.96	
1727.50	1.96	
1730.00	1.96	
1732.50	1.96	
1735.00	1.97	
1737.50	1.97	
1740.00	1.97	
1742.50	1.97	
1745.00	1.97	
1747.50	1.97	
1750.00	1.97	
1752.50	1.97	
1755.00	1.97	
1757.50	1.97	
1760.00	1.97	
1762.50	1.97	
1765.00	1.98	
1767.50	1.98	
1770.00	1.98	
1772.50	1.98	
1775.00	1.98	
1777.50	1.98	
1780.00	1.98	
1782.50	1.98	
1785.00	1.98	
1787.50	1.98	
1790.00	1.98	
1792.50	1.98	
1795.00	1.98	
1797.50	1.98	
1800.00	1.98	
1802.50	1.99	
1805.00	1.99	
1807.50	1.99	
1810.00	1.99	
1812.50	1.99	
1815.00	1.99	
1817.50	1.99	
1820.00	1.99	
1822.50	1.99	
1825.00	1.99	
1827.50	1.99	
1830.00	1.99	
1832.50	1.99	
1835.00	1.99	
1837.50	1.99	
1840.00	1.99	
1842.50	1.99	
1845.00	1.99	
1847.50	1.99	
1850.00	1.99	
1852.50	1.99	
1855.00	1.99	
1857.50	2.00	
1860.00	2.00	
1862.50	2.00	
1865.00	2.00	
1867.50	2.00	
1870.00	2.00	
1872.50	2.00	
1875.00	2.00	
1877.50	2.00	
1880.00	2.00	
1882.50	2.00	
1885.00	2.00	
1887.50	2.00	
1890.00	2.00	
1892.50	2.00	
1895.00	2.00	
1897.50	2.00	
1900.00	2.00	
1902.50	2.00	
1905.00	2.00	
1907.50	2.00	
1910.00	2.00	
1912.50	2.00	
1915.00	2.00	
1917.50	2.00	
1920.00	2.00	
1922.50	2.00	
1925.00	2.00	
1927.50	2.00	
1930.00	2.00	
1932.50	2.00	
1935.00	2.00	
1937.50	2.00	
1940.00	2.00	
1942.50	2.00	
1945.00	2.00	
1947.50	2.00	
1950.00	2.00	
1952.50	2.00	
1955.00	2.00	
1957.50	2.00	
1960.00	2.00	
1962.50	2.00	
1965.00	2.00	
1967.50	2.00	
1970.00	2.00	
1972.50	2.00	
1975.00	2.00	
1977.50	2.00	
1980.00	2.00	
1982.50	2.00	
1985.00	2.00	
1987.50	2.00	
1990.00	2.00	
1992.50	2.00	
1995.00	2.00	
1997.50	2.00	
2000.00	2.00	
2002.50	2.00	
2005.00	2.00	
2007.50	2.00	
2010.00	2.00	
2012.50	2.00	
2015.00	2.00	
2017.50	2.00	
2020.00	1.99	
2022.50	1.99	
2025.00	1.99	
2027.50	1.99	
2030.00	1.99	
2032.50	1.99	
2035.00	1.99	
2037.50	1.99	
2040.00	1.99	
2042.50	1.99	
2045.00	1.99	
2047.50	1.99	
2050.00	1.99	
2052.50	1.99	
2055.00	1.99	
2057.50	1.99	
2060.00	1.99	
2062.50	1.99	
2065.00	1.99	
2067.50	1.99	
2070.00	1.99	
2072.50	1.99	
2075.00	1.99	
2077.50	1.99	
2080.00	1.99	
2082.50	1.98	
2085.00	1.98	
2087.50	1.98	
2090.00	1.98	
2092.50	1.98	
2095.00	1.98	
2097.50	1.98	
2100.00	1.98	
2102.50	1.98	
2105.00	1.98	
2107.50	1.98	
2110.00	1.98	
2112.50	1.98	
2115.00	1.98	
2117.50	1.98	
2120.00	1.98	
2122.50	1.98	
2125.00	1.98	
2127.50	1.97	
2130.00	1.97	
2132.50	1.97	
2135.00	1.97	
2137.50	1.97	
2140.00	1.97	
2142.50	1.97	
2145.00	1.97	
2147.50	1.97	
2150.00	1.97	
2152.50	1.97	
2155.00	1.97	
2157.50	1.97	
2160.00	1.97	
2162.50	1.97	
2165.00	1.96	
2167.50	1.96	
2170.00	1.96	
2172.50	1.96	
2175.00	1.96	
2177.50	1.96	
2180.00	1.96	
2182.50	1.96	
2185.00	1.96	
2187.50	1.96	
2190.00	1.96	
2192.50	1.96	
2195.00	1.96	
2197.50	1.95	
2200.00	1.95	
2202.50	1.95	
2205.00	1.95	
2207.50	1.95	
2210.00	1.95	
2212.50	1.95	
2215.00	1.95	
2217.50	1.95	
2220.00	1.95	
2222.50	1.95	
2225.00	1.95	
2227.50	1.95	
2230.00	1.94	
2232.50	1.94	
2235.00	1.94	
2237.50	1.94	
2240.00	1.94	
2242.50	1.94	
2245.00	1.94	
2247.50	1.94	
2250.00	1.94	
2252.50	1.94	
2255.00	1.94	
2257.50	1.93	
2260.00	1.93	
2262.50	1.93	
2265.00	1.93	
2267.50	1.93	
2270.00	1.93	
2272.50	1.93	
2275.00	1.93	
2277.50	1.93	
2280.00	1.93	
2282.50	1.93	
2285.00	1.92	
2287.50	1.92	
2290.00	1.92	
2292.50	1.92	
2295.00	1.92	
2297.50	1.92	
2300.00	1.92	
2302.50	1.92	
2305.00	1.92	
2307.50	1.92	
2310.00	1.91	
2312.50	1.91	
2315.00	1.91	
2317.50	1.91	
2320.00	1.91	
2322.50	1.91	
2325.00	1.91	
2327.50	1.91	
2330.00	1.91	
2332.50	1.91	
2335.00	1.90	
2337.50	1.90	
2340.00	1.90	
2342.50	1.90	
2345.00	1.90	
2347.50	1.90	
2350.00	1.90	
2352.50	1.90	
2355.00	1.90	
2357.50	1.90	
2360.00	1.89	
2362.50	1.89	
2365.00	1.89	
2367.50	1.89	
2370.00	1.89	
2372.50	1.89	
2375.00	1.89	
2377.50	1.89	
2380.00	1.89	
2382.50	1.88	
2385.00	1.88	
2387.50	1.88	
2390.00	1.88	
2392.50	1.88	
2395.00	1.88	
2397.50	1.88	
2400.00	1.88	
2402.50	1.88	
2405.00	1.87	
2407.50	1.87	
2410.00	1.87	
2412.50	1.87	
2415.00	1.87	
2417.50	1.87	
2420.00	1.87	
2422.50	1.87	
2425.00	1.87	
2427.50	1.86	
2430.00	1.86	
2432.50	1.86	
2435.00	1.86	
2437.50	1.86	
2440.00	1.86	
2442.50	1.86	
2445.00	1.86	
2447.50	1.86	
2450.00	1.85	
2452.50	1.85	
2455.00	1.85	
2457.50	1.85	
2460.00	1.85	
2462.50	1.85	
2465.00	1.85	
2467.50	1.85	
2470.00	1.84	
2472.50	1.84	
2475.00	1.84	
2477.50	1.84	
2480.00	1.84	
2482.50	1.84	
2485.00	1.84	
2487.50	1.84	
2490.00	1.84	
2492.50	1.83	
2495.00	1.83	
2497.50	1.83	
2500.00	1.83	
2502.50	1.83	
2505.00	1.83	
2507.50	1.83	
2510.00	1.83	
2512.50	1.82	
2515.00	1.82	
2517.50	1.82	
2520.00	1.82	
2522.50	1.82	
2525.00	1.82	
2527.50	1.82	
2530.00	1.82	
2532.50	1.82	
2535.00	1.81	
2537.50	1.81	
2540.00	1.81	
2542.50	1.81	
2545.00	1.81	
2547.50	1.81	
2550.00	1.81	
2552.50	1.81	
2555.00	1.80	
2557.50	1.80	
2560.00	1.80	
2562.50	1.80	
2565.00	1.80	
2567.50	1.80	
2570.00	1.80	
2572.50	1.80	
2575.00	1.79	
2577.50	1.79	
2580.00	1.79	
2582.50	1.79	
2585.00	1.79	
2587.50	1.79	
2590.00	1.79	
2592.50	1.79	
2595.00	1.78	
2597.50	1.78	
2600.00	1.78	
2602.50	1.78	
2605.00	1.78	
2607.50	1.78	
2610.00	1.78	
2612.50	1.78	
2615.00	1.77	
2617.50	1.77	
2620.00	1.77	
2622.50	1.77	
2625.00	1.77	
2627.50	1.77	
2630.00	1.77	
2632.50	1.77	
2635.00	1.76	
2637.50	1.76	
2640.00	1.76	
2642.50	1.76	
2645.00	1.76	
2647.50	1.76	
2650.00	1.76	
2652.50	1.76	
2655.00	1.75	
2657.50	1.75	
2660.00	1.75	
2662.50	1.75	
2665.00	1.75	
2667.50	1.75	
2670.00	1.75	
2672.50	1.75	
2675.00	1.74	
2677.50	1.74	
2680.00	1.74	
2682.50	1.74	
2685.00	1.74	
2687.50	1.74	
2690.00	1.74	
2692.50	1.74	
2695.00	1.74	
2697.50	1.73	
2700.00	1.73	
2702.50	1.73	
2705.00	1.73	
2707.50	1.73	
2710.00	1.73	
2712.50	1.73	
2715.00	1.73	
2717.50	1.72	
2720.00	1.72	
2722.50	1.72	
2725.00	1.72	
2727.50	1.72	
2730.00	1.72	
2732.50	1.72	
2735.00	1.72	
2737.50	1.71	
2740.00	1.71	
2742.50	1.71	
2745.00	1.71	
2747.50	1.71	
2750.00	1.71	
2752.50	1.71	
2755.00	1.71	
2757.50	1.70	
2760.00	1.70	
2762.50	1.70	
2765.00	1.70	
2767.50	1.70	
2770.00	1.70	
2772.50	1.70	
2775.00	1.70	
2777.50	1.69	
2780.00	1.69	
2782.50	1.69	
2785.00	1.69	
2787.50	1.69	
2790.00	1.69	
2792.50	1.69	
2795.00	1.69	
2797.50	1.68	
2800.00	1.68	
2802.50	1.68	
2805.00	1.68	
2807.50	1.68	
2810.00	1.68	
2812.50	1.68	
2815.00	1.68	
2817.50	1.67	
2820.00	1.67	
2822.50	1.67	
2825.00	1.67	
2827.50	1.67	
2830.00	1.67	
2832.50	1.67	
2835.00	1.67	
2837.50	1.66	
2840.00	1.66	
2842.50	1.66	
2845.00	1.66	
2847.50	1.66	
2850.00	1.66	
2852.50	1.66	
2855.00	1.66	
2857.50	1.65	
2860.00	1.65	
2862.50	1.65	
2865.00	1.65	
2867.50	1.65	
2870.00	1.65	
2872.50	1.65	
2875.00	1.65	
2877.50	1.64	
2880.00	1.64	
2882.50	1.64	
2885.00	1.64	
2887.50	1.64	
2890.00	1.64	
2892.50	1.64	
2895.00	1.64	
2897.50	1.63	
2900.00	1.63	
2902.50	1.63	
2905.00	1.63	
2907.50	1.63	
2910.00	1.63	
2912.50	1.63	
2915.00	1.63	
2917.50	1.62	
2920.00	1.62	
2922.50	1.62	
2925.00	1.62	
2927.50	1.62	
2930.00	1.62	
2932.50	1.62	
2935.00	1.62	
2937.50	1.61	
2940.00	1.61	
2942.50	1.61	
2945.00	1.61	
2947.50	1.61	
2950.00	1.61	
2952.50	1.61	
2955.00	1.61	
2957.50	1.61	
2960.00	1.60	
2962.50	1.60	
2965.00	1.60	
2967.50	1.60	
2970.00	1.60	
2972.50	1.60	
2975.00	1.60	
2977.50	1.60	
2980.00	1.59	
2982.50	1.59	
2985.00	1.59	
2987.50	1.59	
2990.00	1.59	
2992.50	1.59	
2995.00	1.59	
2997.50	1.59	
3000.00	1.58	
3002.50	1.58	
3005.00	1.58	
3007.50	1.58	
3010.00	1.58	
3012.50	1.58	
3015.00	1.58	
3017.50	1.58	
3020.00	1.58	
3022.50	1.57	
3025.00	1.57	
3027.50	1.57	
3030.00	1.57	
3032.50	1.57	
3035.00	1.57	
3037.50	1.57	
3040.00	1.57	
3042.50	1.56	
3045.00	1.56	
3047.50	1.56	
3050.00	1.56	
3052.50	1.56	
3055.00	1.56	
3057.50	1.56	
3060.00	1.56	
3062.50	1.56	
3065.00	1.55	
3067.50	1.55	
3070.00	1.55	
3072.50	1.55	
3075.00	1.55	
3077.50	1.55	
3080.00	1.55	
3082.50	1.55	
3085.00	1.54	
3087.50	1.54	
3090.00	1.54	
3092.50	1.54	
3095.00	1.54	
3097.50	1.54	
3100.00	1.54	
3102.50	1.54	
3105.00	1.54	
3107.50	1.53	
3110.00	1.53	
3112.50	1.53	
3115.00	1.53	
3117.50	1.53	
3120.00	1.53	
3122.50	1.53	
3125.00	1.53	
3127.50	1.53	
3130.00	1.52	
3132.50	1.52	
3135.00	1.52	
3137.50	1.52	
3140.00	1.52	
3142.50	1.52	
3145.00	1.52	
3147.50	1.52	
3150.00	1.51	
3152.50	1.51	
3155.00	1.51	
3157.50	1.51	
3160.00	1.51	
3162.50	1.51	
3165.00	1.51	
3167.50	1.51	
3170.00	1.51	
3172.50	1.50	
3175.00	1.50	
3177.50	1.50	
3180.00	1.50	
3182.50	1.50	
3185.00	1.50	
3187.50	1.50	
3190.00	1.50	
3192.50	1.50	
3195.00	1.49	
3197.50	1.49	
3200.00	1.49	
3202.50	1.49	
3205.00	1.49	
3207.50	1.49	
3210.00	1.49	
3212.50	1.49	
3215.00	1.49	
3217.50	1.48	
3220.00	1.48	
3222.50	1.48	
3225.00	1.48	
3227.50	1.48	
3230.00	1.48	
3232.50	1.48	
3235.00	1.48	
3237.50	1.48	
3240.00	1.47	
3242.50	1.47	
3245.00	1.47	
3247.50	1.47	
3250.00	1.47	
3252.50	1.47	
3255.00	1.47	
3257.50	1.47	
3260.00	1.47	
3262.50	1.46	
3265.00	1.46	
3267.50	1.46	
3270.00	1.46	
3272.50	1.46	
3275.00	1.46	
3277.50	1.46	
3280.00	1.46	
3282.50	1.46	
3285.00	1.46	
3287.50	1.45	
3290.00	1.45	
3292.50	1.45	
3295.00	1.45	
3297.50	1.45	
3300.00	1.45	
3302.50	1.45	
3305.00	1.45	
3307.50	1.45	
3310.00	1.44	
3312.50	1.44	
3315.00	1.44	
3317.50	1.44	
3320.00	1.44	
3322.50	1.44	
3325.00	1.44	
3327.50	1.44	
3330.00	1.44	
3332.50	1.43	
3335.00	1.43	
3337.50	1.43	
3340.00	1.43	
3342.50	1.43	
3345.00	1.43	
3347.50	1.43	
3350.00	1.43	
3352.50	1.43	
3355.00	1.43	
3357.50	1.42	
3360.00	1.42	
3362.50	1.42	
3365.00	1.42	
3367.50	1.42	
3370.00	1.42	
3372.50	1.42	
3375.00	1.42	
3377.50	1.42	
3380.00	1.42	
3382.50	1.41	
3385.00	1.41	
3387.50	1.41	
3390.00	1.41	
3392.50	1.41	
3395.00	1.41	
3397.50	1.41	
3400.00	1.41	
3402.50	1.41	
3405.00	1.40	
3407.50	1.40	
3410.00	1.40	
3412.50	1.40	
3415.00	1.40	
3417.50	1.40	
3420.00	1.40	
3422.50	1.40	
3425.00	1.40	
3427.50	1.40	
3430.00	1.39	
3432.50	1.39	
3435.00	1.39	
3437.50	1.39	
3440.00	1.39	
3442.50	1.39	
3445.00	1.39	
3447.50	1.39	
3450.00	1.39	
3452.50	1.39	
3455.00	1.38	
3457.50	1.38	
3460.00	1.38	
3462.50	1.38	
3465.00	1.38	
3467.50	1.38	
3470.00	1.38	
3472.50	1.38	
3475.00	1.38	
3477.50	1.38	
3480.00	1.37	
3482.50	1.37	
3485.00	1.37	
3487.50	1.37	
3490.00	1.37	
3492.50	1.37	
3495.00	1.37	
3497.50	1.37	
3500.00	1.37	
3502.50	1.37	
3505.00	1.36	
3507.50	1.36	
3510.00	1.36	
3512.50	1.36	
3515.00	1.36	
3517.50	1.36	
3520.00	1.36	
3522.50	1.36	
3525.00	1.36	
3527.50	1.36	
3530.00	1.36	
3532.50	1.35	
3535.00	1.35	
3537.50	1.35	
3540.00	1.35	
3542.50	1.35	
3545.00	1.35	
3547.50	1.35	
3550.00	1.35	
3552.50	1.35	
3555.00	1.35	
3557.50	1.34	
3560.00	1.34	
3562.50	1.34	
3565.00	1.34	
3567.50	1.34	
3570.00	1.34	
3572.50	1.34	
3575.00	1.34	
3577.50	1.34	
3580.00	1.34	
3582.50	1.34	
3585.00	1.33	
3587.50	1.33	
3590.00	1.33	
3592.50	1.33	
3595.00	1.33	
3597.50	1.33	
3600.00	1.33	
3602.50	1.33	
3605.00	1.33	
3607.50	1.33	
3610.00	1.32	
3612.50	1.32	
3615.00	1.32	
3617.50	1.32	
3620.00	1.32	
3622.50	1.32	
3625.00	1.32	
3627.50	1.32	
3630.00	1.32	
3632.50	1.32	
3635.00	1.32	
3637.50	1.31	
3640.00	1.31	
3642.50	1.31	
3645.00	1.31	
3647.50	1.31	
3650.00	1.31	
3652.50	1.31	
3655.00	1.31	
3657.50	1.31	
3660.00	1.31	
3662.50	1.31	
3665.00	1.30	
3667.50	1.30	
3670.00	1.30	
3672.50	1.30	
3675.00	1.30	
3677.50	1.30	
3680.00	1.30	
3682.50	1.30	
3685.00	1.30	
3687.50	1.30	
3690.00	1.30	
3692.50	1.29	
3695.00	1.29	
3697.50	1.29	
3700.00	1.29	
3702.50	1.29	
3705.00	1.29	
3707.50	1.29	
3710.00	1.29	
3712.50	1.29	
3715.00	1.29	
3717.50	1.29	
3720.00	1.28	
3722.50	1.28	
3725.00	1.28	
3727.50	1.28	
3730.00	1.28	
3732.50	1.28	
3735.00	1.28	
3737.50	1.28	
3740.00	1.28	
3742.50	1.28	
3745.00	1.28	
3747.50	1.28	
3750.00	1.27	
3752.50	1.27	
3755.00	1.27	
3757.50	1.27	
3760.00	1.27	
3762.50	1.27	
3765.00	1.27	
3767.50	1.27	
3770.00	1.27	
3772.50	1.27	
3775.00	1.27	
3777.50	1.26	
3780.00	1.26	
3782.50	1.26	
3785.00	1.26	
3787.50	1.26	
3790.00	1.26	
3792.50	1.26	
3795.00	1.26	
3797.50	1.26	
3800.00	1.26	
3802.50	1.26	
3805.00	1.26	
3807.50	1.25	
3810.00	1.25	
3812.50	1.25	
3815.00	1.25	
3817.50	1.25	
3820.00	1.25	
3822.50	1.25	
3825.00	1.25	
3827.50	1.25	
3830.00	1.25	
3832.50	1.25	
3835.00	1.25	
3837.50	1.24	
3840.00	1.24	
3842.50	1.24	
3845.00	1.24	
3847.50	1.24	
3850.00	1.24	
3852.50	1.24	
3855.00	1.24	
3857.50	1.24	
3860.00	1.24	
3862.50	1.24	
3865.00	1.24	
3867.50	1.23	
3870.00	1.23	
3872.50	1.23	
3875.00	1.23	
3877.50	1.23	
3880.00	1.23	
3882.50	1.23	
3885.00	1.23	
3887.50	1.23	
3890.00	1.23	
3892.50	1.23	
3895.00	1.23	
3897.50	1.22	
3900.00	1.22	
3902.50	1.22	
3905.00	1.22	
3907.50	1.22	
3910.00	1.22	
3912.50	1.22	
3915.00	1.22	
3917.50	1.22	
3920.00	1.22	
3922.50	1.22	
3925.00	1.22	
3927.50	1.22	
3930.00	1.21	
3932.50	1.21	
3935.00	1.21	
3937.50	1.21	
3940.00	1.21	
3942.50	1.21	
3945.00	1.21	
3947.50	1.21	
3950.00	1.21	
3952.50	1.21	
3955.00	1.21	
3957.50	1.21	
3960.00	1.20	
3962.50	1.20	
3965.00	1.20	
3967.50	1.20	
3970.00	1.20	
3972.50	1.20	
3975.00	1.20	
3977.50	1.20	
3980.00	1.20	
3982.50	1.20	
3985.00	1.20	
3987.50	1.20	
3990.00	1.20	
3992.50	1.19	
3995.00	1.19	
3997.50	1.19	
4000.00	1.19	
4002.50	1.19	
4005.00	1.19	
4007.50	1.19	
4010.00	1.19	
4012.50	1.19	
4015.00	1.19	
4017.50	1.19	
4020.00	1.19	
4022.50	1.19	
4025.00	1.18	
4027.50	1.18	
4030.00	1.18	
4032.50	1.18	
4035.00	1.18	
4037.50	1.18	
4040.00	1.18	
4042.50	1.18	
4045.00	1.18	
4047.50	1.18	
4050.00	1.18	
4052.50	1.18	
4055.00	1.18	
4057.50	1.17	
4060.00	1.17	
4062.50	1.17	
4065.00	1.17	
4067.50	1.17	
4070.00	1.17	
4072.50	1.17	
4075.00	1.17	
4077.50	1.17	
4080.00	1.17	
4082.50	1.17	
4085.00	1.17	
4087.50	1.17	
4090.00	1.16	
4092.50	1.16	
4095.00	1.16	
4097.50	1.16	
4100.00	1.16	
4102.50	1.16	
4105.00	1.16	
4107.50	1.16	
4110.00	1.16	
4112.50	1.16	
4115.00	1.16	
4117.50	1.16	
4120.00	1.16	
4122.50	1.16	
4125.00	1.15	
4127.50	1.15	
4130.00	1.15	
4132.50	1.15	
4135.00	1.15	
4137.50	1.15	
4140.00	1.15	
4142.50	1.15	
4145.00	1.15	
4147.50	1.15	
4150.00	1.15	
4152.50	1.15	
4155.00	1.15	
4157.50	1.15	
4160.00	1.14	
4162.50	1.14	
4165.00	1.14	
4167.50	1.14	
4170.00	1.14	
4172.50	1.14	
4175.00	1.14	
4177.50	1.14	
4180.00	1.14	
4182.50	1.14	
4185.00	1.14	
4187.50	1.14	
4190.00	1.14	
4192.50	1.14	
4195.00	1.13	
4197.50	1.13	
4200.00	1.13	
4202.50	1.13	
4205.00	1.13	
4207.50	1.13	
4210.00	1.13	
4212.50	1.13	
4215.00	1.13	
4217.50	1.13	
4220.00	1.13	
4222.50	1.13	
4225.00	1.13	
4227.50	1.13	
4230.00	1.12	
4232.50	1.12	
4235.00	1.12	
4237.50	1.12	
4240.00	1.12	
4242.50	1.12	
4245.00	1.12	
4247.50	1.12	
4250.00	1.12	
4252.50	1.12	
4255.00	1.12	
4257.50	1.12	
4260.00	1.12	
4262.50	1.12	
4265.00	1.11	
4267.50	1.11	
4270.00	1.11	
4272.50	1.11	
4275.00	1.11	
4277.50	1.11	
4280.00	1.11	
4282.50	1.11	
4285.00	1.11	
4287.50	1.11	
4290.00	1.11	
4292.50	1.11	
4295.00	1.11	
4297.50	1.11	
4300.00	1.11	
4302.50	1.10	
4305.00	1.10	
4307.50	1.10	
4310.00	1.10	
4312.50	1.10	
4315.00	1.10	
4317.50	1.10	
4320.00	1.10	
4322.50	1.10	
4325.00	1.10	
4327.50	1.10	
4330.00	1.10	
4332.50	1.10	
4335.00	1.10	
4337.50	1.10	
4340.00	1.09	
4342.50	1.09	
4345.00	1.09	
4347.50	1.09	
4350.00	1.09	
4352.50	1.09	
4355.00	1.09	
4357.50	1.09	
4360.00	1.09	
4362.50	1.09	
4365.00	1.09	
4367.50	1.09	
4370.00	1.09	
4372.50	1.09	
4375.00	1.09	
4377.50	1.08	
4380.00	1.08	
4382.50	1.08	
4385.00	1.08	
4387.50	1.08	
4390.00	1.08	
4392.50	1.08	
4395.00	1.08	
4397.50	1.08	
4400.00	1.08	
4402.50	1.08	
4405.00	1.08	
4407.50	1.08	
4410.00	1.08	
4412.50	1.08	
4415.00	1.08	
4417.50	1.07	
4420.00	1.07	
4422.50	1.07	
4425.00	1.07	
4427.50	1.07	
4430.00	1.07	
4432.50	1.07	
4435.00	1.07	
4437.50	1.07	
4440.00	1.07	
4442.50	1.07	
4445.00	1.07	
4447.50	1.07	
4450.00	1.07	
4452.50	1.07	
4455.00	1.07	
4457.50	1.06	
4460.00	1.06	
4462.50	1.06	
4465.00	1.06	
4467.50	1.06	
4470.00	1.06	
4472.50	1.06	
4475.00	1.06	
4477.50	1.06	
4480.00	1.06	
4482.50	1.06	
4485.00	1.06	
4487.50	1.06	
4490.00	1.06	
4492.50	1.06	
4495.00	1.06	
4497.50	1.05	
4500.00	1.05	
4502.50	1.05	
4505.00	1.05	
4507.50	1.05	
4510.00	1.05	
4512.50	1.05	
4515.00	1.05	
4517.50	1.05	
4520.00	1.05	
4522.50	1.05	
4525.00	1.05	
4527.50	1.05	
4530.00	1.05	
4532.50	1.05	
4535.00	1.05	
4537.50	1.04	
4540.00	1.04	
4542.50	1.04	
4545.00	1.04	
4547.50	1.04	
4550.00	1.04	
4552.50	1.04	
4555.00	1.04	
4557.50	1.04	
4560.00	1.04	
4562.50	1.04	
4565.00	1.04	
4567.50	1.04	
4570.00	1.04	
4572.50	1.04	
4575.00	1.04	
4577.50	1.04	
4580.00	1.03	
4582.50	1.03	
4585.00	1.03	
4587.50	1.03	
4590.00	1.03	
4592.50	1.03	
4595.00	1.03	
4597.50	1.03	
4600.00	1.03	
4602.50	1.03	
4605.00	1.03	
4607.50	1.03	
4610.00	1.03	
4612.50	1.03	
4615.00	1.03	
4617.50	1.03	
4620.00	1.03	
4622.50	1.02	
4625.00	1.02	
4627.50	1.02	
4630.00	1.02	
4632.50	1.02	
4635.00	1.02	
4637.50	1.02	
4640.00	1.02	
4642.50	1.02	
4645.00	1.02	
4647.50	1.02	
4650.00	1.02	
4652.50	1.02	
4655.00	1.02	
4657.50	1.02	
4660.00	1.02	
4662.50	1.02	
4665.00	1.01	
4667.50	1.01	
4670.00	1.01	
4672.50	1.01	
4675.00	1.01	
4677.50	1.01	
4680.00	1.01	
4682.50	1.01	
4685.00	1.01	
4687.50	1.01	
4690.00	1.01	
4692.50	1.01	
4695.00	1.01	
4697.50	1.01	
4700.00	1.01	
4702.50	1.01	
4705.00	1.01	
4707.50	1.01	
4710.00	1.00	
4712.50	1.00	
4715.00	1.00	
4717.50	1.00	
4720.00	1.00	
4722.50	1.00	
4725.00	1.00	
4727.50	1.00	
4730.00	1.00	
4732.50	1.00	
4735.00	1.00	
4737.50	1.00	
4740.00	1.00	
4742.50	1.00	
4745.00	1.00	
4747.50	1.00	
4750.00	1.00	
4752.50	1.00	
4755.00	0.99	
4757.50	0.99	
4760.00	0.99	
4762.50	0.99	
4765.00	0.99	
4767.50	0.99	
4770.00	0.99	
4772.50	0.99	
4775.00	0.99	
4777.50	0.99	
4780.00	0.99	
4782.50	0.99	
4785.00	0.99	
4787.50	0.99	
4790.00	0.99	
4792.50	0.99	
4795.00	0.99	
4797.50	0.99	
4800.00	0.98	
4802.50	0.98	
4805.00	0.98	
4807.50	0.98	
4810.00	0.98	
4812.50	0.98	
4815.00	0.98	
4817.50	0.98	
4820.00	0.98	
4822.50	0.98	
4825.00	0.98	
4827.50	0.98	
4830.00	0.98	
4832.50	0.98	
4835.00	0.98	
4837.50	0.98	
4840.00	0.98	
4842.50	0.98	
4845.00	0.98	
4847.50	0.97	
4850.00	0.97	
4852.50	0.97	
4855.00	0.97	
4857.50	0.97	
4860.00	0.97	
4862.50	0.97	
4865.00	0.97	
4867.50	0.97	
4870.00	0.97	
4872.50	0.97	
4875.00	0.97	
4877.50	0.97	
4880.00	0.97	
4882.50	0.97	
4885.00	0.97	
4887.50	0.97	
4890.00	0.97	
4892.50	0.97	
4895.00	0.96	
4897.50	0.96	
4900.00	0.96	
4902.50	0.96	
4905.00	0.96	
4907.50	0.96	
4910.00	0.96	
4912.50	0.96	
4915.00	0.96	
4917.50	0.96	
4920.00	0.96	
4922.50	0.96	
4925.00	0.96	
4927.50	0.96	
4930.00	0.96	
4932.50	0.96	
4935.00	0.96	
4937.50	0.96	
4940.00	0.96	
4942.50	0.95	
4945.00	0.95	
4947.50	0.95	
4950.00	0.95	
4952.50	0.95	
4955.00	0.95	
4957.50	0.95	
4960.00	0.95	
4962.50	0.95	
4965.00	0.95	
4967.50	0.95	
4970.00	0.95	
4972.50	0.95	
4975.00	0.95	
4977.50	0.95	
4980.00	0.95	
4982.50	0.95	
4985.00	0.95	
4987.50	0.95	
4990.00	0.95	
4992.50	0.94	
4995.00	0.94	
4997.50	0.94	
5000.00	0.94	
5002.50	0.94	
5005.00	0.94	
5007.50	0.94	
5010.00	0.94	
5012.50	0.94	
5015.00	0.94	
5017.50	0.94	
5020.00	0.94	
5022.50	0.94	
5025.00	0.94	
5027.50	0.94	
5030.00	0.94	
5032.50	0.94	
5035.00	0.94	
5037.50	0.94	
5040.00	0.94	
5042.50	0.94	
5045.00	0.93	
5047.50	0.93	
5050.00	0.93	
5052.50	0.93	
5055.00	0.93	
5057.50	0.93	
5060.00	0.93	
5062.50	0.93	
5065.00	0.93	
5067.50	0.93	
5070.00	0.93	
5072.50	0.93	
5075.00	0.93	
5077.50	0.93	
5080.00	0.93	
5082.50	0.93	
5085.00	0.93	
5087.50	0.93	
5090.00	0.93	
5092.50	0.93	
5095.00	0.92	
5097.50	0.92	
5100.00	0.92	
5102.50	0.92	
5105.00	0.92	
5107.50	0.92	
5110.00	0.92	
5112.50	0.92	
5115.00	0.92	
5117.50	0.92	
5120.00	0.92	
5122.50	0.92	
5125.00	0.92	
5127.50	0.92	
5130.00	0.92	
5132.50	0.92	
5135.00	0.92	
5137.50	0.92	
5140.00	0.92	
5142.50	0.92	
5145.00	0.92	
5147.50	0.92	
5150.00	0.91	
5152.50	0.91	
5155.00	0.91	
5157.50	0.91	
5160.00	0.91	
5162.50	0.91	
5165.00	0.91	
5167.50	0.91	
5170.00	0.91	
5172.50	0.91	
5175.00	0.91	
5177.50	0.91	
5180.00	0.91	
5182.50	0.91	
5185.00	0.91	
5187.50	0.91	
5190.00	0.91	
5192.50	0.91	
5195.00	0.91	
5197.50	0.91	
5200.00	0.91	
5202.50	0.90	
5205.00	0.90	
5207.50	0.90	
5210.00	0.90	
5212.50	0.90	
5215.00	0.90	
5217.50	0.90	
5220.00	0.90	
5222.50	0.90	
5225.00	0.90	
5227.50	0.90	
5230.00	0.90	
5232.50	0.90	
5235.00	0.90	
5237.50	0.90	
5240.00	0.90	
5242.50	0.90	
5245.00	0.90	
5247.50	0.90	
5250.00	0.90	
5252.50	0.90	
5255.00	0.90	
5257.50	0.89	
5260.00	0.89	
5262.50	0.89	
5265.00	0.89	
5267.50	0.89	
5270.00	0.89	
5272.50	0.89	
5275.00	0.89	
5277.50	0.89	
5280.00	0.89	
5282.50	0.89	
5285.00	0.89	
5287.50	0.89	
5290.00	0.89	
5292.50	0.89	
5295.00	0.89	
5297.50	0.89	
5300.00	0.89	
5302.50	0.89	
5305.00	0.89	
5307.50	0.89	
5310.00	0.89	
5312.50	0.89	
5315.00	0.88	
5317.50	0.88	
5320.00	0.88	
5322.50	0.88	
5325.00	0.88	
5327.50	0.88	
5330.00	0.88	
5332.50	0.88	
5335.00	0.88	
5337.50	0.88	
5340.00	0.88	
5342.50	0.88	
5345.00	0.88	
5347.50	0.88	
5350.00	0.88	
5352.50	0.88	
5355.00	0.88	
5357.50	0.88	
5360.00	0.88	
5362.50	0.88	
5365.00	0.88	
5367.50	0.88	
5370.00	0.88	
5372.50	0.87	
5375.00	0.87	
5377.50	0.87	
5380.00	0.87	
5382.50	0.87	
5385.00	0.87	
5387.50	0.87	
5390.00	0.87	
5392.50	0.87	
5395.00	0.87	
5397.50	0.87	
5400.00	0.87	
5402.50	0.87	
5405.00	0.87	
5407.50	0.87	
5410.00	0.87	
5412.50	0.87	
5415.00	0.87	
5417.50	0.87	
5420.00	0.87	
5422.50	0.87	
5425.00	0.87	
5427.50	0.87	
5430.00	0.87	
5432.50	0.86	
5435.00	0.86	
5437.50	0.86	
5440.00	0.86	
5442.50	0.86	
5445.00	0.86	
5447.50	0.86	
5450.00	0.86	
5452.50	0.86	
5455.00	0.86	
5457.50	0.86	
5460.00	0.86	
5462.50	0.86	
5465.00	0.86	
5467.50	0.86	
5470.00	0.86	
5472.50	0.86	
5475.00	0.86	
5477.50	0.86	
5480.00	0.86	
5482.50	0.86	
5485.00	0.86	
5487.50	0.86	
5490.00	0.86	
5492.50	0.85	
5495.00	0.85	
5497.50	0.85	
5500.00	0.85	
5502.50	0.85	
5505.00	0.85	
5507.50	0.85	
5510.00	0.85	
5512.50	0.85	
5515.00	0.85	
5517.50	0.85	
5520.00	0.85	
5522.50	0.85	
5525.00	0.85	
5527.50	0.85	
5530.00	0.85	
5532.50	0.85	
5535.00	0.85	
5537.50	0.85	
5540.00	0.85	
5542.50	0.85	
5545.00	0.85	
5547.50	0.85	
5550.00	0.85	
5552.50	0.85	
5555.00	0.84	
5557.50	0.84	
5560.00	0.84	
5562.50	0.84	
5565.00	0.84	
5567.50	0.84	
5570.00	0.84	
5572.50	0.84	
5575.00	0.84	
5577.50	0.84	
5580.00	0.84	
5582.50	0.84	
5585.00	0.84	
5587.50	0.84	
5590.00	0.84	
5592.50	0.84	
5595.00	0.84	
5597.50	0.84	
5600.00	0.84	
5602.50	0.84	
5605.00	0.84	
5607.50	0.84	
5610.00	0.84	
5612.50	0.84	
5615.00	0.84	
5617.50	0.83	
5620.00	0.83	
5622.50	0.83	
5625.00	0.83	
5627.50	0.83	
5630.00	0.83	
5632.50	0.83	
5635.00	0.83	
5637.50	0.83	
5640.00	0.83	
5642.50	0.83	
5645.00	0.83	
5647.50	0.83	
5650.00	0.83	
5652.50	0.83	
5655.00	0.83	
5657.50	0.83	
5660.00	0.83	
5662.50	0.83	
5665.00	0.83	
5667.50	0.83	
5670.00	0.83	
5672.50	0.83	
5675.00	0.83	
5677.50	0.83	
5680.00	0.83	
5682.50	0.82	
5685.00	0.82	
5687.50	0.82	
5690.00	0.82	
5692.50	0.82	
5695.00	0.82	
5697.50	0.82	
5700.00	0.82	
5702.50	0.82	
5705.00	0.82	
5707.50	0.82	
5710.00	0.82	
5712.50	0.82	
5715.00	0.82	
5717.50	0.82	
5720.00	0.82	
5722.50	0.82	
5725.00	0.82	
5727.50	0.82	
5730.00	0.82	
5732.50	0.82	
5735.00	0.82	
5737.50	0.82	
5740.00	0.82	
5742.50	0.82	
5745.00	0.82	
5747.50	0.82	
5750.00	0.81	
5752.50	0.81	
5755.00	0.81	
5757.50	0.81	
5760.00	0.81	
5762.50	0.81	
5765.00	0.81	
5767.50	0.81	
5770.00	0.81	
5772.50	0.81	
5775.00	0.81	
5777.50	0.81	
5780.00	0.81	
5782.50	0.81	
5785.00	0.81	
5787.50	0.81	
5790.00	0.81	
5792.50	0.81	
5795.00	0.81	
5797.50	0.81	
5800.00	0.81	
5802.50	0.81	
5805.00	0.81	
5807.50	0.81	
5810.00	0.81	
5812.50	0.81	
5815.00	0.81	
5817.50	0.80	
5820.00	0.80	
5822.50	0.80	
5825.00	0.80	
5827.50	0.80	
5830.00	0.80	
5832.50	0.80	
5835.00	0.80	
5837.50	0.80	
5840.00	0.80	
5842.50	0.80	
5845.00	0.80	
5847.50	0.80	
5850.00	0.80	
5852.50	0.80	
5855.00	0.80	
5857.50	0.80	
5860.00	0.80	
5862.50	0.80	
5865.00	0.80	
5867.50	0.80	
5870.00	0.80	
5872.50	0.80	
5875.00	0.80	
5877.50	0.80	
5880.00	0.80	
5882.50	0.80	
5885.00	0.80	
5887.50	0.79	
5890.00	0.79	
5892.50	0.79	
5895.00	0.79	
5897.50	0.79	
5900.00	0.79	
5902.50	0.79	
5905.00	0.79	
5907.50	0.79	
5910.00	0.79	
5912.50	0.79	
5915.00	0.79	
5917.50	0.79	
5920.00	0.79	
5922.50	0.79	
5925.00	0.79	
5927.50	0.79	
5930.00	0.79	
5932.50	0.79	
5935.00	0.79	
5937.50	0.79	
5940.00	0.79	
5942.50	0.79	
5945.00	0.79	
5947.50	0.79	
5950.00	0.79	
5952.50	0.79	
5955.00	0.79	
5957.50	0.78	
5960.00	0.78	
5962.50	0.78	
5965.00	0.78	
5967.50	0.78	
5970.00	0.78	
5972.50	0.78	
5975.00	0.78	
5977.50	0.78	
5980.00	0.78	
5982.50	0.78	
5985.00	0.78	
5987.50	0.78	
5990.00	0.78	
5992.50	0.78	
5995.00	0.78	
5997.50	0.78	
6000.00	0.78	
